SpectraSuite Data File
++++++++++++++++++++++++++++++++++++
Date: Wed Feb 22 20:37:32 BRST 2023
User: Julio
Dark Spectrum Present: Yes
Reference Spectrum Present: No
Number of Sampled Component Spectra: 1
Spectrometers: USB2G45254
Integration Time (usec): 3000 (USB2G45254)
Spectra Averaged: 10 (USB2G45254)
Boxcar Smoothing: 0 (USB2G45254)
Correct for Electrical Dark: No (USB2G45254)
Strobe/Lamp Enabled: No (USB2G45254)
Correct for Detector Non-linearity: No (USB2G45254)
Correct for Stray Light: No (USB2G45254)
Number of Pixels in Processed Spectrum: 651
>>>>>Begin Processed Spectral Data<<<<<
350,00	1,76
351,00	2,22
352,00	0,27
353,00	-0,69
354,00	1,85
355,00	2,86
356,00	1,67
357,00	1,05
358,00	1,80
359,00	0,91
360,00	0,15
361,00	0,40
362,00	2,91
363,00	0,25
364,00	-0,20
365,00	0,53
366,00	2,33
367,00	2,52
368,00	2,45
369,00	0,33
370,00	0,56
371,00	1,73
372,00	0,36
373,00	-0,04
374,00	1,79
375,00	1,64
376,00	1,31
377,00	1,38
378,00	1,35
379,00	0,79
380,00	0,74
381,00	1,52
382,00	0,61
383,00	0,81
384,00	0,14
385,00	1,58
386,00	1,39
387,00	1,74
388,00	0,09
389,00	0,74
390,00	3,12
391,00	-1,10
392,00	0,27
393,00	1,62
394,00	0,83
395,00	2,67
396,00	6,35
397,00	0,45
398,00	1,98
399,00	2,94
400,00	1,94
401,00	4,28
402,00	1,76
403,00	2,48
404,00	2,60
405,00	3,50
406,00	5,18
407,00	3,10
408,00	5,10
409,00	4,07
410,00	5,18
411,00	6,92
412,00	8,30
413,00	8,90
414,00	10,88
415,00	13,05
416,00	15,62
417,00	14,33
418,00	19,54
419,00	22,47
420,00	26,57
421,00	31,08
422,00	36,60
423,00	42,34
424,00	49,70
425,00	57,31
426,00	62,31
427,00	74,61
428,00	85,36
429,00	98,32
430,00	110,34
431,00	123,27
432,00	140,82
433,00	160,62
434,00	181,89
435,00	204,26
436,00	221,74
437,00	239,12
438,00	262,57
439,00	291,75
440,00	328,73
441,00	365,98
442,00	387,94
443,00	425,78
444,00	462,78
445,00	496,95
446,00	544,39
447,00	584,66
448,00	633,12
449,00	656,07
450,00	707,25
451,00	737,69
452,00	756,94
453,00	771,88
454,00	771,35
455,00	766,74
456,00	747,22
457,00	705,90
458,00	666,85
459,00	612,28
460,00	587,15
461,00	550,95
462,00	502,84
463,00	480,88
464,00	444,84
465,00	434,72
466,00	407,45
467,00	389,67
468,00	379,32
469,00	361,94
470,00	347,77
471,00	335,26
472,00	318,01
473,00	302,65
474,00	292,72
475,00	279,81
476,00	266,54
477,00	255,70
478,00	244,42
479,00	240,69
480,00	234,43
481,00	226,34
482,00	220,12
483,00	219,33
484,00	217,14
485,00	214,32
486,00	214,41
487,00	215,63
488,00	218,68
489,00	214,13
490,00	221,00
491,00	217,12
492,00	222,36
493,00	224,53
494,00	226,71
495,00	232,08
496,00	238,85
497,00	247,76
498,00	254,04
499,00	266,15
500,00	276,85
501,00	283,30
502,00	298,96
503,00	311,82
504,00	319,42
505,00	332,27
506,00	345,49
507,00	358,94
508,00	373,15
509,00	383,69
510,00	398,02
511,00	411,26
512,00	420,77
513,00	432,02
514,00	442,40
515,00	456,17
516,00	466,89
517,00	483,65
518,00	502,30
519,00	504,51
520,00	516,70
521,00	531,60
522,00	541,52
523,00	555,38
524,00	567,44
525,00	574,38
526,00	584,77
527,00	601,41
528,00	599,72
529,00	621,52
530,00	627,30
531,00	640,32
532,00	643,92
533,00	664,14
534,00	672,62
535,00	677,95
536,00	696,91
537,00	700,34
538,00	716,38
539,00	726,02
540,00	743,09
541,00	738,98
542,00	755,50
543,00	762,67
544,00	769,38
545,00	771,42
546,00	787,10
547,00	792,41
548,00	785,47
549,00	805,50
550,00	806,62
551,00	802,60
552,00	799,34
553,00	813,89
554,00	808,13
555,00	811,33
556,00	810,01
557,00	814,55
558,00	812,73
559,00	815,32
560,00	830,81
561,00	819,38
562,00	803,34
563,00	809,42
564,00	810,26
565,00	815,98
566,00	809,81
567,00	804,65
568,00	795,27
569,00	802,32
570,00	799,34
571,00	797,00
572,00	794,55
573,00	796,78
574,00	778,85
575,00	782,56
576,00	777,24
577,00	761,19
578,00	762,00
579,00	757,11
580,00	763,20
581,00	751,63
582,00	744,00
583,00	741,52
584,00	732,12
585,00	723,09
586,00	715,24
587,00	708,38
588,00	703,42
589,00	698,04
590,00	681,54
591,00	687,96
592,00	666,43
593,00	673,99
594,00	661,90
595,00	644,71
596,00	638,37
597,00	616,27
598,00	623,03
599,00	607,45
600,00	593,86
601,00	592,79
602,00	584,40
603,00	570,78
604,00	560,49
605,00	557,04
606,00	543,13
607,00	527,79
608,00	526,47
609,00	513,67
610,00	499,65
611,00	493,84
612,00	484,85
613,00	474,78
614,00	461,04
615,00	454,08
616,00	446,36
617,00	435,86
618,00	412,44
619,00	408,52
620,00	398,46
621,00	388,73
622,00	382,61
623,00	378,09
624,00	370,81
625,00	349,53
626,00	342,48
627,00	333,37
628,00	325,75
629,00	326,05
630,00	315,28
631,00	297,35
632,00	296,20
633,00	291,05
634,00	278,24
635,00	270,77
636,00	268,86
637,00	256,02
638,00	252,34
639,00	246,28
640,00	234,97
641,00	235,20
642,00	222,03
643,00	221,29
644,00	212,70
645,00	205,02
646,00	197,83
647,00	188,26
648,00	187,38
649,00	180,49
650,00	177,97
651,00	172,20
652,00	166,36
653,00	160,23
654,00	157,26
655,00	152,61
656,00	143,00
657,00	139,71
658,00	138,63
659,00	134,20
660,00	130,67
661,00	125,63
662,00	121,42
663,00	114,56
664,00	113,03
665,00	110,77
666,00	102,80
667,00	103,93
668,00	97,61
669,00	95,48
670,00	90,48
671,00	86,30
672,00	84,00
673,00	81,56
674,00	78,77
675,00	76,54
676,00	73,86
677,00	70,89
678,00	68,39
679,00	64,97
680,00	60,89
681,00	63,36
682,00	60,16
683,00	56,00
684,00	56,68
685,00	55,17
686,00	51,16
687,00	49,88
688,00	47,51
689,00	44,66
690,00	44,04
691,00	43,40
692,00	41,90
693,00	37,38
694,00	38,68
695,00	37,60
696,00	34,18
697,00	32,91
698,00	33,05
699,00	32,97
700,00	30,88
701,00	30,72
702,00	31,55
703,00	28,17
704,00	30,40
705,00	27,76
706,00	23,84
707,00	23,27
708,00	23,49
709,00	21,48
710,00	22,23
711,00	20,81
712,00	21,22
713,00	19,14
714,00	19,94
715,00	18,45
716,00	19,83
717,00	14,90
718,00	17,63
719,00	15,63
720,00	17,87
721,00	14,69
722,00	13,28
723,00	13,71
724,00	15,09
725,00	12,58
726,00	13,90
727,00	10,70
728,00	12,69
729,00	12,16
730,00	10,27
731,00	13,12
732,00	9,42
733,00	9,34
734,00	7,65
735,00	8,75
736,00	9,20
737,00	6,92
738,00	8,94
739,00	6,32
740,00	6,56
741,00	7,58
742,00	5,87
743,00	5,47
744,00	5,10
745,00	7,20
746,00	6,89
747,00	5,11
748,00	6,29
749,00	2,91
750,00	3,61
751,00	5,38
752,00	5,25
753,00	6,96
754,00	5,14
755,00	4,33
756,00	4,56
757,00	3,42
758,00	3,90
759,00	3,71
760,00	4,13
761,00	3,89
762,00	1,46
763,00	2,62
764,00	2,47
765,00	2,47
766,00	2,78
767,00	4,17
768,00	4,38
769,00	3,08
770,00	2,50
771,00	3,12
772,00	3,61
773,00	4,03
774,00	2,65
775,00	1,91
776,00	0,88
777,00	1,92
778,00	2,39
779,00	-0,12
780,00	1,52
781,00	1,14
782,00	0,67
783,00	-0,12
784,00	1,56
785,00	0,58
786,00	3,01
787,00	3,05
788,00	2,59
789,00	4,67
790,00	1,43
791,00	-1,23
792,00	1,28
793,00	0,95
794,00	1,83
795,00	0,27
796,00	0,89
797,00	0,44
798,00	2,11
799,00	0,10
800,00	2,29
801,00	2,64
802,00	1,98
803,00	0,88
804,00	1,46
805,00	1,06
806,00	1,34
807,00	0,72
808,00	-0,21
809,00	0,91
810,00	0,74
811,00	0,74
812,00	-1,97
813,00	0,83
814,00	1,09
815,00	-0,10
816,00	-0,88
817,00	-0,53
818,00	0,27
819,00	1,06
820,00	1,25
821,00	1,44
822,00	2,16
823,00	1,17
824,00	-0,34
825,00	-0,50
826,00	1,51
827,00	1,00
828,00	1,68
829,00	2,22
830,00	1,47
831,00	-0,25
832,00	-0,29
833,00	1,28
834,00	0,98
835,00	0,06
836,00	2,10
837,00	0,34
838,00	1,69
839,00	1,29
840,00	-0,62
841,00	1,53
842,00	-0,40
843,00	0,52
844,00	0,03
845,00	0,16
846,00	0,91
847,00	-0,40
848,00	0,15
849,00	-1,70
850,00	1,19
851,00	-1,32
852,00	0,12
853,00	-0,73
854,00	1,21
855,00	0,79
856,00	0,31
857,00	0,35
858,00	3,60
859,00	-0,50
860,00	0,02
861,00	2,62
862,00	1,83
863,00	1,98
864,00	-0,27
865,00	1,36
866,00	0,41
867,00	-0,51
868,00	-1,15
869,00	0,90
870,00	-0,48
871,00	1,64
872,00	2,00
873,00	-0,06
874,00	-1,60
875,00	0,33
876,00	1,42
877,00	-0,83
878,00	0,29
879,00	1,70
880,00	-0,33
881,00	1,45
882,00	-0,29
883,00	0,55
884,00	-0,27
885,00	1,28
886,00	-1,41
887,00	0,25
888,00	0,16
889,00	0,67
890,00	1,87
891,00	-3,61
892,00	0,51
893,00	-1,37
894,00	1,19
895,00	0,30
896,00	-1,06
897,00	0,40
898,00	-1,30
899,00	-0,34
900,00	-0,10
901,00	-0,15
902,00	0,69
903,00	-0,89
904,00	0,90
905,00	-1,22
906,00	2,34
907,00	-2,25
908,00	0,94
909,00	0,57
910,00	0,80
911,00	0,60
912,00	-0,56
913,00	-0,12
914,00	0,15
915,00	-0,42
916,00	0,29
917,00	0,05
918,00	0,14
919,00	-1,45
920,00	-1,32
921,00	0,62
922,00	0,80
923,00	0,57
924,00	1,36
925,00	0,41
926,00	-0,02
927,00	-0,26
928,00	1,39
929,00	-0,45
930,00	-1,11
931,00	0,25
932,00	0,31
933,00	0,92
934,00	-0,21
935,00	-0,74
936,00	0,46
937,00	0,10
938,00	-2,31
939,00	-0,73
940,00	2,09
941,00	-2,00
942,00	2,02
943,00	0,08
944,00	0,44
945,00	1,39
946,00	-0,57
947,00	-0,99
948,00	-0,70
949,00	-0,49
950,00	-0,88
951,00	0,05
952,00	-0,19
953,00	0,46
954,00	0,64
955,00	3,11
956,00	1,47
957,00	-1,00
958,00	-1,24
959,00	1,59
960,00	-0,93
961,00	0,15
962,00	1,76
963,00	-0,41
964,00	-0,99
965,00	-0,36
966,00	0,09
967,00	2,31
968,00	0,40
969,00	1,43
970,00	-0,22
971,00	0,20
972,00	-0,32
973,00	0,43
974,00	0,43
975,00	-1,35
976,00	-0,67
977,00	-1,46
978,00	2,07
979,00	1,45
980,00	2,19
981,00	-2,66
982,00	0,35
983,00	-0,44
984,00	1,67
985,00	0,30
986,00	-0,21
987,00	1,96
988,00	-2,24
989,00	1,95
990,00	-0,56
991,00	-0,77
992,00	-0,50
993,00	-0,33
994,00	-0,81
995,00	-0,17
996,00	0,82
997,00	-1,75
998,00	-0,47
999,00	-0,37
1000,00	-0,55
>>>>>End Processed Spectral Data<<<<<
